001		  002		003		 004		  005		  006		  007		  008		  009		 010		  011		011-2		012		013		 014		015		 016		017		 018	
06/12_11:42:48	Time=83.000 sec	06/12_11:45:03	Time=82.000 sec	06/12_11:47:13	Time=82.000 sec	06/12_11:49:17	Time=83.000 sec	06/12_11:51:30	Time=83.000 sec	06/12_11:53:38	Time=82.000 sec	06/12_12:01:16	Time=83.000 sec	06/12_12:04:23	Time=83.000 sec	06/12_12:06:24	Time=83.000 sec	06/12_12:09:11	Time=82.000 sec	06/12_12:12:15	Time=82.000 sec	06/12_12:13:58	Time=82.000 sec	06/12_12:16:20	Time=82.000 sec	06/12_12:18:34	Time=82.000 sec	06/12_12:20:58	Time=82.000 sec	06/12_12:23:34	Time=82.000 sec	06/12_12:25:41	Time=82.000 sec	06/12_12:28:38	Time=83.000 sec	06/12_12:30:46	Time=82.000 sec
																																					
Lambda (nm)	Transmittance (%)	Lambda (nm)	Transmittance (%)	Lambda (nm)	Transmittance (%)	Lambda (nm)	Transmittance (%)	Lambda (nm)	Transmittance (%)	Lambda (nm)	Transmittance (%)	Lambda (nm)	Transmittance (%)	Lambda (nm)	Transmittance (%)	Lambda (nm)	Transmittance (%)	Lambda (nm)	Transmittance (%)	Lambda (nm)	Transmittance (%)	Lambda (nm)	Transmittance (%)	Lambda (nm)	Transmittance (%)	Lambda (nm)	Transmittance (%)	Lambda (nm)	Transmittance (%)	Lambda (nm)	Transmittance (%)	Lambda (nm)	Transmittance (%)	Lambda (nm)	Transmittance (%)	Lambda (nm)	Transmittance (%)
300.000000	10.926895	300.000000	9.166027	300.000000	10.740863	300.000000	5.263139	300.000000	35.805459	300.000000	38.025081	300.000000	8.133966	300.000000	38.896500	300.000000	22.398787	300.000000	58.921999	300.000000	50.613294	300.000000	61.192653	300.000000	20.110033	300.000000	42.976206	300.000000	47.292914	300.000000	61.865530	300.000000	76.089051	300.000000	33.272209	300.000000	37.964183
310.000000	4.146459	310.000000	0.330079	310.000000	1.655141	310.000000	3.873220	310.000000	5.585036	310.000000	6.388041	310.000000	6.798357	310.000000	8.707277	310.000000	8.620588	310.000000	22.048019	310.000000	39.935785	310.000000	37.702478	310.000000	7.676720	310.000000	33.478946	310.000000	40.501656	310.000000	45.311324	310.000000	45.071436	310.000000	20.946153	310.000000	6.184531
320.000000	3.619910	320.000000	2.077788	320.000000	1.743480	320.000000	3.071768	320.000000	3.371266	320.000000	3.519240	320.000000	2.366337	320.000000	5.384408	320.000000	3.850936	320.000000	18.856976	320.000000	35.326650	320.000000	34.846008	320.000000	3.379766	320.000000	27.970708	320.000000	39.358905	320.000000	42.629044	320.000000	38.447835	320.000000	18.353815	320.000000	5.711070
330.000000	1.847053	330.000000	0.051993	330.000000	0.643530	330.000000	2.894473	330.000000	2.456554	330.000000	2.510773	330.000000	2.348893	330.000000	2.644098	330.000000	2.570374	330.000000	19.298660	330.000000	35.113698	330.000000	34.774258	330.000000	3.720041	330.000000	29.742766	330.000000	40.695299	330.000000	42.667821	330.000000	40.459894	330.000000	19.101177	330.000000	4.619714
340.000000	1.234814	340.000000	0.446425	340.000000	0.992027	340.000000	1.439284	340.000000	2.613160	340.000000	1.737175	340.000000	1.748460	340.000000	2.010358	340.000000	1.899539	340.000000	19.372510	340.000000	34.826664	340.000000	33.928718	340.000000	2.437703	340.000000	29.895458	340.000000	40.729063	340.000000	42.604220	340.000000	40.357916	340.000000	18.791068	340.000000	3.549793
350.000000	0.935205	350.000000	0.671334	350.000000	1.119755	350.000000	1.418744	350.000000	1.844989	350.000000	2.125683	350.000000	1.399459	350.000000	2.547704	350.000000	1.718314	350.000000	21.127383	350.000000	33.735553	350.000000	33.903770	350.000000	2.544642	350.000000	29.652468	350.000000	40.977554	350.000000	42.959703	350.000000	40.877989	350.000000	19.194836	350.000000	3.653239
360.000000	1.268814	360.000000	0.954366	360.000000	1.341187	360.000000	1.947311	360.000000	2.503173	360.000000	2.855963	360.000000	2.237307	360.000000	2.594215	360.000000	2.315674	360.000000	22.187318	360.000000	34.127933	360.000000	34.189826	360.000000	2.715879	360.000000	29.922772	360.000000	41.735377	360.000000	42.538708	360.000000	41.675209	360.000000	19.892243	360.000000	3.974477
370.000000	1.538685	370.000000	1.170626	370.000000	1.145187	370.000000	1.673742	370.000000	1.872254	370.000000	2.078090	370.000000	2.389069	370.000000	2.554573	370.000000	2.275347	370.000000	23.295557	370.000000	34.060615	370.000000	34.001611	370.000000	2.713598	370.000000	29.892831	370.000000	41.329182	370.000000	42.896271	370.000000	41.238030	370.000000	20.251788	370.000000	3.626103
380.000000	1.903381	380.000000	1.790352	380.000000	1.602346	380.000000	2.230895	380.000000	2.212924	380.000000	2.275561	380.000000	2.628038	380.000000	2.646801	380.000000	2.403052	380.000000	25.025012	380.000000	33.863190	380.000000	33.745492	380.000000	2.895655	380.000000	30.348876	380.000000	41.695937	380.000000	43.020491	380.000000	41.829016	380.000000	20.744949	380.000000	4.269710
390.000000	0.978494	390.000000	0.867222	390.000000	1.244731	390.000000	1.179299	390.000000	1.737536	390.000000	1.830432	390.000000	1.849646	390.000000	2.241996	390.000000	1.634774	390.000000	25.281358	390.000000	33.270055	390.000000	33.263034	390.000000	2.092625	390.000000	30.471641	390.000000	41.602008	390.000000	42.540494	390.000000	41.361557	390.000000	20.489777	390.000000	3.209833
400.000000	0.903434	400.000000	0.725808	400.000000	1.115256	400.000000	1.384589	400.000000	1.658351	400.000000	1.862076	400.000000	1.739160	400.000000	2.051627	400.000000	1.602196	400.000000	26.050300	400.000000	32.910988	400.000000	32.817864	400.000000	2.055357	400.000000	30.508080	400.000000	41.595235	400.000000	42.734078	400.000000	41.515415	400.000000	20.444418	400.000000	3.171302
410.000000	1.013397	410.000000	0.661540	410.000000	1.024191	410.000000	1.180213	410.000000	1.661947	410.000000	1.510078	410.000000	1.664760	410.000000	1.682594	410.000000	1.539078	410.000000	26.904362	410.000000	32.913661	410.000000	32.853543	410.000000	2.010715	410.000000	30.891340	410.000000	41.590712	410.000000	42.608821	410.000000	41.684582	410.000000	20.692977	410.000000	3.172570
420.000000	0.952962	420.000000	0.924040	420.000000	1.075871	420.000000	1.275901	420.000000	1.474468	420.000000	1.562955	420.000000	1.451103	420.000000	1.757725	420.000000	1.474586	420.000000	27.384208	420.000000	33.018188	420.000000	32.835905	420.000000	2.111349	420.000000	31.120750	420.000000	41.803547	420.000000	42.643246	420.000000	42.085013	420.000000	21.250868	420.000000	3.134949
430.000000	0.911361	430.000000	0.948001	430.000000	0.965816	430.000000	1.042105	430.000000	1.379368	430.000000	1.596595	430.000000	1.406410	430.000000	1.677838	430.000000	1.443891	430.000000	28.178749	430.000000	33.090077	430.000000	32.886476	430.000000	2.007585	430.000000	31.510202	430.000000	41.938060	430.000000	43.001272	430.000000	42.868330	430.000000	21.566944	430.000000	3.003703
440.000000	0.916803	440.000000	0.752137	440.000000	0.896519	440.000000	1.189015	440.000000	1.304400	440.000000	1.496990	440.000000	1.564137	440.000000	1.710103	440.000000	1.236649	440.000000	28.930716	440.000000	33.048975	440.000000	33.231347	440.000000	1.945504	440.000000	31.765429	440.000000	42.377580	440.000000	43.057637	440.000000	43.311406	440.000000	21.858082	440.000000	3.015070
450.000000	0.882701	450.000000	0.824597	450.000000	1.051417	450.000000	1.118014	450.000000	1.311875	450.000000	1.534530	450.000000	1.503528	450.000000	1.539363	450.000000	1.321009	450.000000	29.490824	450.000000	33.159964	450.000000	33.259131	450.000000	2.035911	450.000000	32.001462	450.000000	42.550327	450.000000	43.196757	450.000000	43.775918	450.000000	21.984238	450.000000	2.837773
460.000000	0.912557	460.000000	0.807791	460.000000	1.094938	460.000000	1.227392	460.000000	1.315423	460.000000	1.540466	460.000000	1.573933	460.000000	1.582988	460.000000	1.276585	460.000000	29.989491	460.000000	33.009740	460.000000	33.066668	460.000000	2.097156	460.000000	31.995065	460.000000	42.528135	460.000000	43.119393	460.000000	43.916072	460.000000	21.797605	460.000000	3.020585
470.000000	0.888434	470.000000	0.994818	470.000000	1.092491	470.000000	1.225968	470.000000	1.457531	470.000000	1.508142	470.000000	1.529426	470.000000	1.603755	470.000000	1.297151	470.000000	30.636945	470.000000	33.028996	470.000000	32.974547	470.000000	1.970027	470.000000	32.226039	470.000000	42.790668	470.000000	43.518622	470.000000	44.218183	470.000000	21.709184	470.000000	3.012488
480.000000	0.778190	480.000000	0.901498	480.000000	0.948523	480.000000	1.107507	480.000000	1.336434	480.000000	1.416951	480.000000	1.482134	480.000000	1.528225	480.000000	1.238754	480.000000	31.014412	480.000000	32.611165	480.000000	32.676678	480.000000	1.980954	480.000000	32.085575	480.000000	42.817161	480.000000	43.391848	480.000000	44.433249	480.000000	21.461178	480.000000	2.814633
490.000000	0.819948	490.000000	0.824230	490.000000	0.992326	490.000000	1.038708	490.000000	1.308843	490.000000	1.490768	490.000000	1.436254	490.000000	1.407323	490.000000	1.257874	490.000000	31.353450	490.000000	32.510903	490.000000	32.603301	490.000000	2.088553	490.000000	32.119033	490.000000	42.881203	490.000000	43.449849	490.000000	44.629316	490.000000	21.442728	490.000000	2.725750
500.000000	0.768404	500.000000	0.864123	500.000000	0.893332	500.000000	1.079021	500.000000	1.177009	500.000000	1.344618	500.000000	1.355509	500.000000	1.382438	500.000000	1.127328	500.000000	31.624637	500.000000	32.500613	500.000000	32.539942	500.000000	2.073704	500.000000	32.154998	500.000000	42.989285	500.000000	43.479259	500.000000	45.027162	500.000000	21.435667	500.000000	2.583840
510.000000	0.872777	510.000000	0.880917	510.000000	1.077289	510.000000	0.947420	510.000000	1.208461	510.000000	1.401044	510.000000	1.312935	510.000000	1.464628	510.000000	1.249203	510.000000	32.336236	510.000000	33.049178	510.000000	32.991278	510.000000	2.396515	510.000000	32.323318	510.000000	43.363150	510.000000	43.785106	510.000000	45.784777	510.000000	21.650261	510.000000	2.476919
520.000000	0.950705	520.000000	0.821734	520.000000	0.905802	520.000000	0.966827	520.000000	1.117478	520.000000	1.469787	520.000000	1.519315	520.000000	1.519650	520.000000	1.402308	520.000000	33.029970	520.000000	33.495435	520.000000	33.388611	520.000000	2.838197	520.000000	32.638544	520.000000	43.480336	520.000000	44.093142	520.000000	46.767001	520.000000	21.995411	520.000000	2.587782
530.000000	0.888696	530.000000	0.894652	530.000000	1.029864	530.000000	1.026097	530.000000	1.415169	530.000000	1.437307	530.000000	1.569687	530.000000	1.701764	530.000000	1.525427	530.000000	33.656415	530.000000	34.138265	530.000000	34.204785	530.000000	3.464257	530.000000	32.912193	530.000000	43.790312	530.000000	44.487149	530.000000	47.850146	530.000000	22.524707	530.000000	2.684371
540.000000	0.833669	540.000000	0.866252	540.000000	0.975719	540.000000	1.011272	540.000000	1.306264	540.000000	1.551320	540.000000	1.622457	540.000000	1.796861	540.000000	1.584959	540.000000	34.123907	540.000000	34.906719	540.000000	35.004815	540.000000	4.405262	540.000000	33.150892	540.000000	44.307999	540.000000	44.676933	540.000000	48.865689	540.000000	23.156474	540.000000	2.651954
550.000000	0.941934	550.000000	0.890760	550.000000	1.101683	550.000000	1.116172	550.000000	1.406096	550.000000	1.620546	550.000000	1.729307	550.000000	2.121694	550.000000	1.971448	550.000000	34.746027	550.000000	36.073555	550.000000	36.114089	550.000000	5.684727	550.000000	33.388230	550.000000	44.747623	550.000000	45.154022	550.000000	50.179208	550.000000	23.834588	550.000000	2.741836
560.000000	0.824242	560.000000	1.033691	560.000000	1.193657	560.000000	1.224610	560.000000	1.491307	560.000000	1.822047	560.000000	2.141714	560.000000	2.615861	560.000000	2.403585	560.000000	35.559450	560.000000	37.177347	560.000000	37.243585	560.000000	7.060951	560.000000	33.861634	560.000000	45.345175	560.000000	45.371315	560.000000	51.783203	560.000000	24.271045	560.000000	2.930319
570.000000	0.891710	570.000000	1.219346	570.000000	1.359512	570.000000	1.312482	570.000000	1.757239	570.000000	2.197250	570.000000	2.707180	570.000000	3.212912	570.000000	3.043284	570.000000	36.337476	570.000000	38.315534	570.000000	38.380602	570.000000	8.521759	570.000000	33.957695	570.000000	45.888319	570.000000	45.964506	570.000000	53.350686	570.000000	25.074322	570.000000	3.070584
580.000000	0.989590	580.000000	1.432926	580.000000	1.703949	580.000000	1.454694	580.000000	2.183849	580.000000	2.591388	580.000000	3.291532	580.000000	3.979159	580.000000	3.841171	580.000000	36.903224	580.000000	39.478656	580.000000	39.450269	580.000000	10.196325	580.000000	34.407197	580.000000	46.624659	580.000000	46.330341	580.000000	54.501245	580.000000	25.847202	580.000000	3.401104
590.000000	0.990743	590.000000	1.749179	590.000000	1.931061	590.000000	1.814574	590.000000	2.690644	590.000000	3.187733	590.000000	4.084474	590.000000	4.902539	590.000000	4.741336	590.000000	37.697680	590.000000	40.679548	590.000000	40.727846	590.000000	11.998671	590.000000	34.548487	590.000000	47.530742	590.000000	46.853152	590.000000	55.951020	590.000000	26.671183	590.000000	3.815302
600.000000	1.000153	600.000000	2.153862	600.000000	2.378058	600.000000	2.246481	600.000000	3.091785	600.000000	3.873518	600.000000	5.016320	600.000000	5.873454	600.000000	5.826756	600.000000	38.474094	600.000000	41.623325	600.000000	41.760084	600.000000	13.648077	600.000000	34.757240	600.000000	48.143408	600.000000	47.325709	600.000000	56.967751	600.000000	27.305711	600.000000	4.410341
610.000000	1.102410	610.000000	2.575411	610.000000	2.908832	610.000000	2.722490	610.000000	3.821029	610.000000	4.705710	610.000000	6.021642	610.000000	6.933358	610.000000	6.889453	610.000000	39.188420	610.000000	42.855613	610.000000	42.857278	610.000000	15.512275	610.000000	35.143069	610.000000	49.023671	610.000000	47.923447	610.000000	58.227811	610.000000	27.920775	610.000000	4.755951
620.000000	1.297982	620.000000	3.178307	620.000000	3.512052	620.000000	3.347686	620.000000	4.501185	620.000000	5.594448	620.000000	7.079914	620.000000	8.121999	620.000000	8.100431	620.000000	39.902471	620.000000	43.901473	620.000000	43.849444	620.000000	17.249114	620.000000	35.214681	620.000000	49.664157	620.000000	48.399787	620.000000	59.262208	620.000000	28.587288	620.000000	5.464588
630.000000	1.441390	630.000000	3.753081	630.000000	4.108806	630.000000	4.049960	630.000000	5.474410	630.000000	6.626620	630.000000	8.176031	630.000000	9.506646	630.000000	9.218387	630.000000	40.655600	630.000000	44.790841	630.000000	44.857609	630.000000	19.049899	630.000000	35.415009	630.000000	50.495665	630.000000	49.088574	630.000000	60.464270	630.000000	29.296511	630.000000	6.161440
640.000000	1.755421	640.000000	4.497176	640.000000	4.786241	640.000000	4.722869	640.000000	6.530070	640.000000	7.737498	640.000000	9.399004	640.000000	10.869840	640.000000	10.901379	640.000000	41.605504	640.000000	45.822336	640.000000	45.965117	640.000000	20.913660	640.000000	35.838834	640.000000	51.483381	640.000000	49.806621	640.000000	61.504005	640.000000	29.805662	640.000000	7.008527
650.000000	1.873896	650.000000	5.320473	650.000000	5.735114	650.000000	5.484992	650.000000	7.380374	650.000000	8.900978	650.000000	10.607354	650.000000	12.319264	650.000000	12.200465	650.000000	42.336616	650.000000	46.729532	650.000000	46.708198	650.000000	22.688705	650.000000	35.989266	650.000000	52.109733	650.000000	50.402963	650.000000	62.550646	650.000000	30.376620	650.000000	7.864017
660.000000	2.099664	660.000000	6.141786	660.000000	6.593948	660.000000	6.231215	660.000000	8.319365	660.000000	9.871226	660.000000	11.837501	660.000000	13.828019	660.000000	13.722790	660.000000	43.019899	660.000000	47.662018	660.000000	47.769511	660.000000	24.349559	660.000000	36.297283	660.000000	53.005973	660.000000	50.939172	660.000000	63.560527	660.000000	31.028164	660.000000	8.581765
670.000000	2.494609	670.000000	7.019067	670.000000	7.527215	670.000000	7.250637	670.000000	9.541912	670.000000	11.133092	670.000000	12.967605	670.000000	15.291234	670.000000	15.043734	670.000000	43.836671	670.000000	48.486711	670.000000	48.592264	670.000000	25.886088	670.000000	36.414741	670.000000	53.564571	670.000000	51.571353	670.000000	64.192997	670.000000	31.516532	670.000000	9.711476
680.000000	2.779542	680.000000	7.915088	680.000000	8.423168	680.000000	8.139091	680.000000	10.641226	680.000000	12.233513	680.000000	14.500107	680.000000	16.681175	680.000000	16.689592	680.000000	44.577439	680.000000	49.426755	680.000000	49.346238	680.000000	27.558242	680.000000	36.758970	680.000000	54.583050	680.000000	52.143140	680.000000	64.981707	680.000000	31.960935	680.000000	10.624237
690.000000	3.196434	690.000000	9.032218	690.000000	9.292484	690.000000	8.961034	690.000000	11.748866	690.000000	13.336550	690.000000	15.656618	690.000000	18.208128	690.000000	18.005502	690.000000	45.348795	690.000000	50.120741	690.000000	50.169064	690.000000	28.947858	690.000000	37.262374	690.000000	55.211934	690.000000	52.750414	690.000000	65.919450	690.000000	32.460686	690.000000	11.503382
700.000000	3.538618	700.000000	9.663855	700.000000	10.247351	700.000000	9.957643	700.000000	12.708283	700.000000	14.283342	700.000000	16.970981	700.000000	19.276770	700.000000	19.352579	700.000000	45.860881	700.000000	50.563127	700.000000	50.607874	700.000000	30.068212	700.000000	37.368749	700.000000	55.742401	700.000000	53.373153	700.000000	66.641354	700.000000	32.760730	700.000000	12.287477
710.000000	3.792357	710.000000	10.442707	710.000000	11.036317	710.000000	10.705706	710.000000	13.714424	710.000000	15.123273	710.000000	18.024599	710.000000	20.718064	710.000000	20.567767	710.000000	46.707299	710.000000	51.164089	710.000000	51.179859	710.000000	31.484474	710.000000	37.650714	710.000000	56.332505	710.000000	54.043289	710.000000	67.319023	710.000000	33.234138	710.000000	13.196023
720.000000	4.236809	720.000000	11.409681	720.000000	11.729659	720.000000	11.380425	720.000000	14.688304	720.000000	16.184105	720.000000	19.193631	720.000000	21.738779	720.000000	21.734555	720.000000	47.159254	720.000000	51.720584	720.000000	51.726152	720.000000	32.376267	720.000000	38.061680	720.000000	56.967668	720.000000	54.310342	720.000000	67.896834	720.000000	33.573957	720.000000	13.924271
730.000000	4.548058	730.000000	12.130025	730.000000	12.431355	730.000000	12.287622	730.000000	15.535178	730.000000	16.877594	730.000000	20.137334	730.000000	22.868715	730.000000	22.648102	730.000000	47.813172	730.000000	52.264902	730.000000	52.435196	730.000000	33.516571	730.000000	38.172396	730.000000	57.761050	730.000000	55.074938	730.000000	68.458817	730.000000	33.856966	730.000000	14.763422
740.000000	4.840976	740.000000	12.888943	740.000000	13.113536	740.000000	12.977806	740.000000	16.054618	740.000000	17.566741	740.000000	21.117760	740.000000	23.606966	740.000000	23.579065	740.000000	48.322329	740.000000	52.550706	740.000000	52.887721	740.000000	34.409116	740.000000	38.388320	740.000000	57.822057	740.000000	55.279212	740.000000	68.782380	740.000000	34.053583	740.000000	15.391906
750.000000	5.294800	750.000000	13.480877	750.000000	13.790586	750.000000	13.759182	750.000000	16.852901	750.000000	18.677227	750.000000	22.142799	750.000000	24.308044	750.000000	24.331751	750.000000	48.830934	750.000000	53.379749	750.000000	53.063780	750.000000	35.048394	750.000000	38.624513	750.000000	58.287087	750.000000	55.975935	750.000000	69.415698	750.000000	34.334776	750.000000	16.076698
760.000000	5.404649	760.000000	14.285405	760.000000	14.540388	760.000000	14.269892	760.000000	17.331002	760.000000	19.242150	760.000000	22.919471	760.000000	25.181814	760.000000	25.077062	760.000000	49.440727	760.000000	53.835944	760.000000	53.500170	760.000000	35.813055	760.000000	39.122417	760.000000	59.093880	760.000000	56.446105	760.000000	69.481548	760.000000	34.424198	760.000000	16.657143
